# Wavelength (micron), (rp/rs), Error
0.920950 2.059400e-02 7.200000e-05
0.950300 2.069900e-02 8.200000e-05
0.979650 2.073400e-02 6.500000e-05
1.009000 2.063900e-02 7.400000e-05
1.038350 2.064900e-02 5.700000e-05
1.065250 2.055300e-02 6.600000e-05
1.100750 2.069800e-02 7.200000e-05
1.126400 2.068900e-02 6.800000e-05
1.132730 2.076800e-02 7.400000e-05
1.158180 2.084400e-02 6.800000e-05
1.183640 2.062900e-02 6.800000e-05
1.209090 2.059400e-02 6.300000e-05
1.234550 2.061300e-02 6.700000e-05
1.260000 2.055800e-02 5.900000e-05
1.285460 2.075400e-02 6.500000e-05
1.310910 2.079600e-02 5.600000e-05
1.336360 2.071500e-02 6.400000e-05
1.361820 2.088900e-02 5.900000e-05
1.387270 2.097500e-02 6.400000e-05
1.412730 2.098400e-02 5.700000e-05
1.438180 2.083400e-02 6.000000e-05
1.463640 2.067000e-02 5.500000e-05
1.489090 2.068800e-02 6.200000e-05
1.514550 2.059000e-02 5.600000e-05
1.540000 2.046000e-02 5.500000e-05
1.565460 2.062900e-02 6.500000e-05
1.590910 2.052000e-02 6.300000e-05
1.616360 2.052700e-02 6.100000e-05
1.641820 2.056200e-02 5.900000e-05
2.457200 2.068700e-02 1.460000e-04
2.457500 2.069300e-02 9.500000e-05
2.457500 2.086400e-02 1.080000e-04
2.472000 2.060200e-02 1.320000e-04
2.472500 2.052600e-02 9.900000e-05
2.472500 2.055900e-02 1.030000e-04
2.487300 2.027900e-02 1.250000e-04
2.487500 2.046000e-02 9.500000e-05
2.487500 2.042900e-02 9.700000e-05
2.502100 2.040200e-02 1.300000e-04
2.502500 2.061000e-02 9.300000e-05
2.502500 2.057200e-02 9.100000e-05
2.517000 2.069600e-02 1.210000e-04
2.517500 2.075900e-02 9.500000e-05
2.517500 2.072100e-02 1.010000e-04
2.532300 2.093400e-02 1.200000e-04
2.532500 2.088300e-02 9.500000e-05
2.532500 2.093800e-02 9.900000e-05
2.547200 2.074800e-02 1.270000e-04
2.547500 2.069900e-02 9.300000e-05
2.547500 2.068000e-02 9.600000e-05
2.562100 2.087500e-02 1.330000e-04
2.562500 2.077900e-02 9.100000e-05
2.562500 2.076900e-02 9.200000e-05
2.576900 2.095300e-02 1.170000e-04
2.577500 2.093500e-02 8.900000e-05
2.577500 2.095300e-02 9.000000e-05
2.591800 2.067900e-02 1.110000e-04
2.592500 2.073800e-02 8.500000e-05
2.592500 2.071000e-02 9.200000e-05
2.607200 2.086400e-02 1.100000e-04
2.607500 2.083600e-02 8.300000e-05
2.607500 2.084100e-02 8.600000e-05
2.622100 2.090900e-02 1.090000e-04
2.622500 2.084100e-02 8.400000e-05
2.622500 2.085300e-02 8.600000e-05
2.637000 2.083100e-02 1.100000e-04
2.637500 2.078900e-02 8.400000e-05
2.637500 2.082900e-02 8.900000e-05
2.651900 2.094400e-02 1.080000e-04
2.652500 2.085400e-02 8.200000e-05
2.652500 2.085300e-02 8.700000e-05
2.666800 2.114800e-02 1.060000e-04
2.667500 2.112300e-02 8.300000e-05
2.667500 2.111700e-02 8.500000e-05
2.682200 2.120600e-02 1.040000e-04
2.682500 2.122000e-02 8.300000e-05
2.682500 2.127900e-02 8.500000e-05
2.697100 2.126000e-02 1.120000e-04
2.697500 2.123800e-02 8.100000e-05
2.697500 2.119000e-02 8.400000e-05
2.712100 2.103700e-02 9.800000e-05
2.712500 2.107700e-02 7.700000e-05
2.712500 2.107900e-02 8.100000e-05
2.727000 2.125900e-02 1.060000e-04
2.727500 2.116100e-02 7.700000e-05
2.727500 2.117300e-02 7.600000e-05
2.742000 2.108100e-02 1.070000e-04
2.742500 2.106800e-02 7.900000e-05
2.742500 2.109500e-02 8.000000e-05
2.756900 2.101400e-02 1.170000e-04
2.757500 2.103600e-02 8.500000e-05
2.757500 2.108100e-02 8.700000e-05
2.771900 2.111500e-02 1.050000e-04
2.772500 2.103500e-02 8.100000e-05
2.772500 2.104700e-02 7.800000e-05
2.786800 2.090000e-02 1.110000e-04
2.787500 2.099100e-02 8.100000e-05
2.787500 2.098700e-02 8.000000e-05
2.801800 2.090300e-02 1.130000e-04
2.802500 2.100900e-02 8.300000e-05
2.802500 2.101200e-02 8.200000e-05
2.817200 2.120000e-02 1.140000e-04
2.817500 2.111300e-02 7.700000e-05
2.817500 2.113100e-02 8.200000e-05
2.832200 2.088600e-02 1.110000e-04
2.832500 2.086100e-02 8.200000e-05
2.832500 2.089000e-02 8.000000e-05
2.847200 2.107300e-02 1.050000e-04
2.847500 2.104500e-02 8.900000e-05
2.847500 2.101400e-02 8.100000e-05
2.862200 2.096900e-02 1.100000e-04
2.862500 2.101400e-02 8.000000e-05
2.862500 2.087700e-02 8.200000e-05
2.877200 2.082000e-02 1.200000e-04
2.877500 2.078500e-02 8.500000e-05
2.877500 2.083400e-02 8.700000e-05
2.892200 2.087300e-02 1.110000e-04
2.892500 2.081600e-02 8.100000e-05
2.892500 2.086100e-02 8.400000e-05
2.907200 2.065100e-02 1.110000e-04
2.907500 2.081300e-02 8.700000e-05
2.907500 2.080300e-02 8.600000e-05
2.922200 2.079900e-02 1.060000e-04
2.922500 2.082500e-02 8.000000e-05
2.922500 2.088100e-02 8.000000e-05
2.937200 2.093000e-02 1.120000e-04
2.937500 2.098800e-02 8.500000e-05
2.937500 2.097100e-02 7.800000e-05
2.952300 2.081600e-02 1.100000e-04
2.952500 2.086400e-02 8.100000e-05
2.952500 2.087700e-02 8.300000e-05
2.966800 2.078500e-02 1.030000e-04
2.967500 2.079000e-02 7.800000e-05
2.967500 2.080100e-02 7.700000e-05
2.981800 2.084700e-02 1.020000e-04
2.982500 2.088700e-02 8.000000e-05
2.982500 2.091600e-02 8.100000e-05
2.996900 2.054100e-02 1.030000e-04
2.997500 2.070500e-02 7.800000e-05
2.997500 2.073500e-02 7.700000e-05
3.011900 2.080900e-02 1.030000e-04
3.012500 2.083600e-02 7.700000e-05
3.012500 2.084500e-02 7.900000e-05
3.026900 2.067900e-02 1.080000e-04
3.027500 2.066600e-02 8.000000e-05
3.027500 2.071600e-02 8.000000e-05
3.042000 2.074300e-02 1.020000e-04
3.042500 2.083600e-02 8.400000e-05
3.042500 2.084100e-02 8.200000e-05
3.057000 2.072200e-02 1.050000e-04
3.057500 2.080300e-02 8.500000e-05
3.057500 2.077400e-02 8.100000e-05
3.072100 2.076600e-02 1.100000e-04
3.072500 2.075900e-02 8.300000e-05
3.072500 2.081600e-02 8.500000e-05
3.087200 2.061700e-02 1.120000e-04
3.087500 2.072700e-02 8.300000e-05
3.087500 2.064600e-02 8.100000e-05
3.101700 2.080800e-02 1.040000e-04
3.102500 2.076900e-02 8.200000e-05
3.102500 2.080000e-02 7.800000e-05
3.116800 2.051500e-02 9.700000e-05
3.117500 2.062500e-02 8.000000e-05
3.117500 2.065100e-02 8.000000e-05
3.131900 2.051700e-02 1.050000e-04
3.132500 2.060300e-02 8.800000e-05
3.132500 2.056400e-02 8.200000e-05
3.147000 2.076400e-02 1.010000e-04
3.147500 2.080500e-02 7.300000e-05
3.147500 2.088500e-02 7.500000e-05
3.162100 2.050500e-02 1.040000e-04
3.162500 2.059300e-02 7.700000e-05
3.162500 2.056000e-02 7.800000e-05
3.177100 2.051400e-02 8.700000e-05
3.177500 2.046800e-02 7.800000e-05
3.177500 2.052500e-02 7.600000e-05
3.192200 2.027900e-02 1.000000e-04
3.192500 2.044100e-02 8.400000e-05
3.192500 2.043100e-02 7.900000e-05
3.206800 2.054000e-02 9.000000e-05
3.207500 2.055800e-02 7.300000e-05
3.207500 2.059200e-02 7.600000e-05
3.221900 2.040500e-02 9.800000e-05
3.222500 2.047800e-02 7.900000e-05
3.222500 2.054100e-02 7.800000e-05
3.237100 2.059800e-02 1.010000e-04
3.237500 2.058700e-02 7.500000e-05
3.237500 2.068100e-02 8.000000e-05
3.252200 2.048000e-02 9.800000e-05
3.252500 2.056900e-02 8.000000e-05
3.252500 2.055100e-02 8.000000e-05
3.267300 2.050200e-02 9.800000e-05
3.267500 2.058700e-02 8.100000e-05
3.267500 2.054700e-02 7.700000e-05
3.281900 2.051000e-02 9.600000e-05
3.282500 2.062200e-02 7.300000e-05
3.282500 2.059300e-02 7.800000e-05
3.297000 2.055100e-02 9.600000e-05
3.297500 2.055000e-02 7.500000e-05
3.297500 2.060100e-02 7.600000e-05
3.312100 2.053100e-02 9.800000e-05
3.312500 2.063500e-02 7.500000e-05
3.312500 2.068100e-02 7.500000e-05
3.326800 2.069800e-02 1.040000e-04
3.327500 2.077200e-02 8.000000e-05
3.327500 2.079500e-02 8.000000e-05
3.341900 2.054700e-02 9.000000e-05
3.342500 2.059500e-02 7.500000e-05
3.342500 2.062300e-02 7.700000e-05
3.357000 2.063300e-02 1.000000e-04
3.357500 2.055500e-02 7.100000e-05
3.357500 2.061600e-02 7.400000e-05
3.372200 2.040900e-02 9.600000e-05
3.372500 2.060400e-02 7.600000e-05
3.372500 2.062100e-02 7.500000e-05
3.387300 2.041000e-02 9.500000e-05
3.387500 2.042500e-02 7.800000e-05
3.387500 2.045800e-02 7.300000e-05
3.402000 2.037400e-02 9.100000e-05
3.402500 2.040100e-02 8.100000e-05
3.402500 2.038000e-02 8.300000e-05
3.417100 2.039200e-02 1.030000e-04
3.417500 2.041700e-02 8.200000e-05
3.417500 2.041600e-02 8.100000e-05
3.432200 2.032100e-02 1.030000e-04
3.432500 2.036800e-02 7.800000e-05
3.432500 2.039200e-02 7.900000e-05
3.446900 2.038000e-02 9.700000e-05
3.447500 2.041200e-02 7.800000e-05
3.447500 2.040900e-02 7.900000e-05
3.462100 2.050600e-02 1.090000e-04
3.462500 2.050700e-02 8.200000e-05
3.462500 2.054100e-02 8.100000e-05
3.477200 2.040400e-02 9.700000e-05
3.477500 2.041700e-02 7.700000e-05
3.477500 2.041600e-02 7.900000e-05
3.491900 2.035200e-02 1.010000e-04
3.492500 2.046200e-02 7.800000e-05
3.492500 2.048600e-02 7.700000e-05
3.507000 2.022500e-02 1.040000e-04
3.507500 2.043000e-02 8.100000e-05
3.507500 2.041000e-02 8.100000e-05
3.522200 2.030100e-02 1.090000e-04
3.522500 2.033200e-02 8.000000e-05
3.522500 2.032800e-02 7.900000e-05
3.536900 2.042300e-02 9.800000e-05
3.537500 2.037800e-02 7.800000e-05
3.537500 2.040300e-02 8.100000e-05
3.552000 2.021700e-02 9.300000e-05
3.552500 2.022900e-02 8.100000e-05
3.552500 2.023400e-02 7.900000e-05
3.567200 2.018400e-02 1.030000e-04
3.567500 2.024100e-02 7.900000e-05
3.567500 2.024400e-02 7.900000e-05
3.581900 2.016200e-02 1.030000e-04
3.582500 2.029200e-02 7.900000e-05
3.582500 2.027600e-02 8.000000e-05
3.597100 2.025500e-02 1.020000e-04
3.597500 2.035500e-02 7.700000e-05
3.597500 2.033000e-02 8.200000e-05
3.612200 2.039700e-02 1.070000e-04
3.612500 2.039600e-02 8.100000e-05
3.612500 2.042800e-02 8.400000e-05
3.626900 2.032600e-02 9.900000e-05
3.627500 2.028800e-02 7.600000e-05
3.627500 2.027800e-02 8.100000e-05
3.642100 2.021900e-02 9.900000e-05
3.642500 2.032000e-02 8.200000e-05
3.642500 2.025200e-02 7.700000e-05
3.657300 2.027500e-02 1.130000e-04
3.657500 2.028800e-02 7.800000e-05
3.657500 2.026600e-02 8.100000e-05
3.672000 2.032900e-02 1.050000e-04
3.672500 2.031900e-02 7.800000e-05
3.672500 2.035700e-02 8.200000e-05
3.686700 2.027700e-02 1.130000e-04
3.687500 2.034000e-02 1.010000e-04
3.687500 2.028100e-02 8.500000e-05
3.701900 2.030200e-02 1.010000e-04
3.702500 2.036400e-02 8.800000e-05
3.702500 2.036300e-02 8.300000e-05
3.717100 2.014900e-02 1.130000e-04
3.717500 2.019800e-02 8.500000e-05
3.717500 2.017700e-02 8.700000e-05
3.731800 2.049400e-02 1.050000e-04
3.732500 2.037200e-02 8.100000e-05
3.732500 2.040800e-02 8.200000e-05
3.747000 2.020200e-02 1.070000e-04
3.747500 2.028100e-02 8.000000e-05
3.747500 2.029600e-02 8.000000e-05
3.762200 2.022500e-02 1.050000e-04
3.762500 2.030500e-02 8.200000e-05
3.762500 2.032100e-02 8.900000e-05
3.776900 2.020300e-02 1.080000e-04
3.777500 2.028400e-02 8.200000e-05
3.777500 2.028800e-02 9.000000e-05
3.792100 2.015100e-02 1.060000e-04
3.792500 2.017100e-02 8.300000e-05
3.792500 2.019300e-02 8.400000e-05
3.807300 2.013700e-02 1.080000e-04
3.807500 2.024200e-02 8.300000e-05
3.807500 2.028500e-02 8.600000e-05
3.822000 2.010300e-02 1.170000e-04
3.822500 2.024200e-02 8.500000e-05
3.822500 2.024300e-02 9.300000e-05
3.836700 2.026400e-02 1.190000e-04
3.837500 2.032900e-02 8.700000e-05
3.837500 2.034800e-02 8.500000e-05
3.851900 2.013200e-02 1.070000e-04
3.852500 2.024000e-02 8.500000e-05
3.852500 2.021500e-02 8.700000e-05
3.867100 2.037300e-02 1.210000e-04
3.867500 2.019300e-02 9.200000e-05
3.867500 2.019700e-02 9.600000e-05
3.881800 2.022800e-02 1.190000e-04
3.882500 2.019600e-02 9.200000e-05
3.882500 2.021800e-02 9.100000e-05
3.897000 2.025900e-02 1.040000e-04
3.897100 2.068600e-02 1.320000e-04
3.897500 2.039200e-02 1.190000e-04
3.897500 2.038700e-02 9.900000e-05
3.897500 2.027000e-02 9.000000e-05
3.897500 2.026900e-02 8.500000e-05
3.912200 2.021800e-02 1.030000e-04
3.912300 2.017400e-02 1.240000e-04
3.912500 2.008300e-02 1.030000e-04
3.912500 2.010000e-02 9.300000e-05
3.912500 2.029200e-02 8.600000e-05
3.912500 2.033600e-02 8.600000e-05
3.926900 2.038600e-02 1.030000e-04
3.927000 2.002600e-02 1.100000e-04
3.927500 2.015200e-02 9.400000e-05
3.927500 2.019800e-02 8.100000e-05
3.927500 2.035100e-02 8.500000e-05
3.927500 2.035300e-02 8.800000e-05
3.941700 2.015200e-02 1.130000e-04
3.942100 2.026500e-02 9.200000e-05
3.942500 2.022100e-02 9.700000e-05
3.942500 2.023600e-02 9.100000e-05
3.942500 2.031200e-02 8.900000e-05
3.942500 2.037400e-02 8.800000e-05
3.956900 2.039800e-02 1.030000e-04
3.957500 2.029400e-02 9.000000e-05
3.957500 2.024700e-02 8.300000e-05
3.972100 2.023300e-02 1.080000e-04
3.972500 2.022200e-02 1.040000e-04
3.972500 2.026100e-02 8.700000e-05
3.986700 2.012700e-02 1.140000e-04
3.987500 2.028100e-02 9.600000e-05
3.987500 2.036000e-02 8.700000e-05
4.001900 2.017000e-02 1.020000e-04
4.002500 2.027000e-02 9.400000e-05
4.002500 2.025600e-02 8.200000e-05
4.017100 2.048900e-02 1.110000e-04
4.017500 2.056700e-02 9.900000e-05
4.017500 2.056400e-02 8.400000e-05
4.031800 2.046400e-02 1.150000e-04
4.032500 2.043500e-02 9.600000e-05
4.032500 2.043200e-02 8.700000e-05
4.047000 2.044600e-02 1.080000e-04
4.047500 2.043000e-02 9.900000e-05
4.047500 2.049300e-02 9.100000e-05
4.062200 2.040500e-02 1.090000e-04
4.062500 2.041300e-02 9.000000e-05
4.062500 2.040100e-02 8.800000e-05
4.076900 2.008200e-02 1.110000e-04
4.077500 2.024300e-02 9.400000e-05
4.077500 2.028300e-02 9.600000e-05
4.092100 2.009200e-02 1.130000e-04
4.092500 2.011100e-02 1.000000e-04
4.092500 2.012300e-02 8.500000e-05
4.107200 2.022000e-02 1.160000e-04
4.107500 2.020600e-02 1.020000e-04
4.107500 2.027400e-02 8.800000e-05
4.121900 2.030100e-02 1.220000e-04
4.122500 2.021400e-02 1.070000e-04
4.122500 2.019000e-02 9.400000e-05
4.137100 2.026600e-02 1.220000e-04
4.137500 2.028800e-02 1.010000e-04
4.137500 2.023300e-02 9.300000e-05
4.152300 2.012900e-02 1.140000e-04
4.152500 1.999500e-02 9.500000e-05
4.152500 2.004600e-02 8.800000e-05
4.167000 2.028100e-02 1.100000e-04
4.167500 2.023000e-02 1.020000e-04
4.167500 2.022600e-02 8.900000e-05
4.181700 2.046900e-02 1.140000e-04
4.182500 2.049000e-02 1.010000e-04
4.182500 2.049700e-02 9.200000e-05
4.196900 2.029800e-02 1.200000e-04
4.197500 2.023000e-02 1.140000e-04
4.197500 2.031700e-02 9.900000e-05
4.212100 2.053300e-02 1.090000e-04
4.212500 2.054400e-02 1.010000e-04
4.212500 2.058300e-02 8.500000e-05
4.226800 2.100500e-02 1.160000e-04
4.227500 2.091000e-02 1.030000e-04
4.227500 2.098800e-02 9.400000e-05
4.241900 2.081100e-02 1.190000e-04
4.242500 2.082700e-02 1.050000e-04
4.242500 2.091700e-02 1.010000e-04
4.257100 2.124000e-02 1.150000e-04
4.257500 2.117500e-02 1.090000e-04
4.257500 2.113800e-02 8.800000e-05
4.271800 2.111000e-02 1.220000e-04
4.272500 2.118400e-02 1.050000e-04
4.272500 2.119700e-02 9.000000e-05
4.287000 2.101100e-02 1.190000e-04
4.287500 2.114300e-02 1.100000e-04
4.287500 2.121300e-02 1.020000e-04
4.302200 2.130700e-02 1.270000e-04
4.302500 2.119900e-02 1.170000e-04
4.302500 2.125800e-02 9.600000e-05
4.316900 2.097300e-02 1.340000e-04
4.317500 2.107900e-02 1.160000e-04
4.317500 2.113200e-02 1.000000e-04
4.332100 2.133100e-02 1.280000e-04
4.332500 2.124800e-02 1.120000e-04
4.332500 2.131200e-02 9.900000e-05
4.347300 2.126700e-02 1.300000e-04
4.347500 2.106900e-02 1.190000e-04
4.347500 2.121900e-02 1.050000e-04
4.362000 2.102600e-02 1.410000e-04
4.362500 2.104800e-02 1.160000e-04
4.362500 2.111700e-02 9.900000e-05
4.377100 2.110400e-02 1.400000e-04
4.377500 2.103800e-02 1.160000e-04
4.377500 2.106100e-02 1.030000e-04
4.392300 2.098500e-02 1.370000e-04
4.392500 2.097700e-02 1.270000e-04
4.392500 2.106300e-02 1.050000e-04
4.407000 2.084300e-02 1.500000e-04
4.407500 2.087600e-02 1.210000e-04
4.407500 2.084700e-02 1.060000e-04
4.421700 2.108500e-02 1.470000e-04
4.422500 2.089500e-02 1.230000e-04
4.422500 2.096500e-02 1.050000e-04
4.436900 2.072400e-02 1.280000e-04
4.437500 2.075100e-02 1.260000e-04
4.437500 2.081500e-02 1.000000e-04
4.452100 2.049400e-02 1.340000e-04
4.452500 2.056700e-02 1.180000e-04
4.452500 2.060400e-02 1.020000e-04
4.466800 2.071200e-02 1.510000e-04
4.467500 2.071200e-02 1.250000e-04
4.467500 2.075600e-02 1.100000e-04
4.482000 2.043800e-02 1.470000e-04
4.482500 2.041400e-02 1.260000e-04
4.482500 2.045700e-02 1.100000e-04
4.497100 2.047300e-02 1.500000e-04
4.497500 2.047000e-02 1.390000e-04
4.497500 2.053000e-02 1.150000e-04
4.511800 2.032300e-02 1.500000e-04
4.512500 2.034900e-02 1.250000e-04
4.512500 2.035200e-02 1.140000e-04
4.527000 2.064500e-02 1.390000e-04
4.527500 2.049400e-02 1.230000e-04
4.527500 2.056300e-02 1.030000e-04
4.542200 2.048400e-02 1.450000e-04
4.542500 2.032700e-02 1.260000e-04
4.542500 2.044300e-02 1.100000e-04
4.556900 2.071600e-02 1.520000e-04
4.557500 2.062300e-02 1.280000e-04
4.557500 2.063500e-02 1.080000e-04
4.572100 2.060100e-02 1.490000e-04
4.572500 2.050700e-02 1.390000e-04
4.572500 2.051300e-02 1.120000e-04
4.587300 2.021100e-02 1.620000e-04
4.587500 2.031900e-02 1.330000e-04
4.587500 2.040000e-02 1.140000e-04
4.602000 2.039400e-02 1.530000e-04
4.602500 2.048000e-02 1.240000e-04
4.602500 2.054900e-02 1.110000e-04
4.617200 2.073500e-02 1.520000e-04
4.617500 2.072700e-02 1.300000e-04
4.617500 2.067600e-02 1.100000e-04
4.632300 2.051000e-02 1.420000e-04
4.632500 2.054300e-02 1.270000e-04
4.632500 2.043800e-02 1.150000e-04
4.647000 2.063200e-02 1.530000e-04
4.647500 2.064400e-02 1.330000e-04
4.647500 2.057900e-02 1.110000e-04
4.661700 2.046000e-02 1.590000e-04
4.662500 2.042600e-02 1.430000e-04
4.662500 2.043500e-02 1.120000e-04
4.676900 2.056500e-02 1.570000e-04
4.677500 2.054900e-02 1.320000e-04
4.677500 2.064500e-02 1.190000e-04
4.692100 2.016900e-02 1.650000e-04
4.692500 2.021200e-02 1.340000e-04
4.692500 2.035500e-02 1.150000e-04
4.706800 2.065000e-02 1.680000e-04
4.707500 2.052400e-02 1.410000e-04
4.707500 2.054200e-02 1.180000e-04
4.722000 2.078900e-02 1.580000e-04
4.722500 2.065500e-02 1.360000e-04
4.722500 2.065900e-02 1.190000e-04
4.737200 2.054600e-02 1.610000e-04
4.737500 2.054400e-02 1.420000e-04
4.737500 2.043300e-02 1.190000e-04
4.751900 2.074300e-02 1.550000e-04
4.752500 2.068000e-02 1.430000e-04
4.752500 2.070000e-02 1.210000e-04
4.767000 2.063800e-02 1.760000e-04
4.767500 2.052100e-02 1.550000e-04
4.767500 2.044400e-02 1.340000e-04
4.782200 2.038900e-02 1.860000e-04
4.782500 2.026500e-02 1.500000e-04
4.782500 2.025100e-02 1.300000e-04
4.796900 2.030700e-02 1.760000e-04
4.797500 2.039900e-02 1.440000e-04
4.797500 2.037500e-02 1.200000e-04
4.812100 2.036600e-02 1.610000e-04
4.812500 2.042000e-02 1.460000e-04
4.812500 2.058900e-02 1.250000e-04
4.827300 2.049600e-02 1.830000e-04
4.827500 2.046600e-02 1.540000e-04
4.827500 2.054300e-02 1.330000e-04
4.842000 2.058500e-02 1.740000e-04
4.842500 2.059000e-02 1.450000e-04
4.842500 2.058600e-02 1.210000e-04
4.856700 2.055100e-02 1.910000e-04
4.857500 2.045500e-02 1.590000e-04
4.857500 2.047500e-02 1.260000e-04
4.871900 2.059900e-02 1.730000e-04
4.872500 2.041000e-02 1.460000e-04
4.872500 2.041900e-02 1.270000e-04
4.887000 2.014000e-02 1.960000e-04
4.887500 2.010900e-02 1.640000e-04
4.887500 2.014600e-02 1.320000e-04
4.901700 2.020800e-02 1.800000e-04
4.902500 2.026600e-02 1.540000e-04
4.902500 2.021500e-02 1.370000e-04
4.916900 2.041800e-02 1.860000e-04
4.917500 2.030700e-02 1.660000e-04
4.917500 2.025600e-02 1.370000e-04
4.932100 2.030000e-02 1.990000e-04
4.932500 2.039300e-02 1.740000e-04
4.932500 2.050500e-02 1.370000e-04
4.946800 2.071100e-02 2.180000e-04
4.947500 2.053300e-02 1.810000e-04
4.947500 2.044700e-02 1.530000e-04
4.962000 2.046500e-02 2.060000e-04
4.962500 2.026900e-02 1.740000e-04
4.962500 2.036100e-02 1.460000e-04
4.977500 2.033600e-02 1.990000e-04
4.992500 2.015900e-02 2.280000e-04
5.007500 2.008000e-02 2.920000e-04
5.022500 1.999100e-02 3.410000e-04
5.037500 2.043500e-02 4.560000e-04
5.064000 2.006500e-02 8.400000e-05
5.214000 2.008300e-02 9.100000e-05
5.365000 2.026900e-02 6.400000e-05
5.515000 2.024800e-02 8.400000e-05
5.665000 2.021300e-02 8.400000e-05
5.815000 2.038600e-02 8.900000e-05
5.966000 2.027600e-02 6.800000e-05
6.116000 2.024100e-02 7.300000e-05
6.266000 2.014600e-02 8.600000e-05
6.416000 2.058100e-02 7.300000e-05
6.567000 2.105500e-02 1.060000e-04
6.717000 2.083800e-02 6.900000e-05
6.867000 2.047000e-02 1.220000e-04
7.017000 2.053600e-02 7.300000e-05
7.168000 2.105400e-02 7.000000e-05
7.318000 2.101000e-02 7.900000e-05
7.468000 2.138600e-02 7.200000e-05
7.618000 2.110400e-02 8.800000e-05
7.769000 2.079700e-02 8.800000e-05
7.919000 2.086800e-02 9.900000e-05
8.069000 2.060900e-02 8.400000e-05
8.219000 2.084900e-02 1.480000e-04
8.370000 2.091700e-02 9.500000e-05
8.520000 2.093000e-02 1.030000e-04
8.670000 2.095300e-02 9.700000e-05
8.820000 2.083200e-02 1.070000e-04
8.971000 2.097500e-02 1.390000e-04
9.121000 2.088200e-02 1.210000e-04
9.271000 2.076400e-02 1.060000e-04
9.421000 2.064700e-02 1.190000e-04
9.572000 2.067700e-02 1.210000e-04
9.722000 2.072100e-02 1.230000e-04
9.872000 2.045300e-02 1.260000e-04
10.022000 2.023200e-02 1.300000e-04
10.173000 2.062300e-02 1.430000e-04
10.323000 2.032800e-02 1.960000e-04
10.473000 2.041100e-02 3.040000e-04
10.623000 2.061200e-02 1.960000e-04
10.774000 2.046000e-02 2.110000e-04
10.924000 2.035800e-02 2.650000e-04
11.074000 2.012700e-02 2.830000e-04
11.224000 1.965800e-02 3.120000e-04
11.375000 1.954800e-02 3.110000e-04
11.525000 1.894800e-02 3.950000e-04
11.675000 1.961400e-02 3.620000e-04
11.825000 1.926800e-02 4.310000e-04
11.976000 1.770500e-02 6.010000e-04

